# Onda Corporation
# Hydrophone Calibration Data
# 
Calibration_DATE	29-May-2013
# 
# Hydrophone description
HYD_MFG	Onda
HYD_MODEL	HNR
HYD_APERTURE_NOM_UM	0500
HYD_SN	1663
HYD_POLARITY	Positive
# 
# External preamplifier description
AMP_MFG	NONE
AMP_MODEL	NONE
AMP_SN	NONE
AMP_GAIN_NOM_DB	NONE
AMP_BW_MHZ	NONE
AMP_OUTPUT_IMP_NOM_OHMS	NONE
# 
# Cable/adaptor between hydrophone and preamplifier
CA_BWT_HYD_AMP	NONE
# 
# Environment
ELECTRICAL_LOAD	OpenCircuit
WATER_TEMP_DEGC	23.5
WATER_RESISTIVITY_MOHMS-CM	1.2
#
# Calibration data
# Freq(MHz) Sens(dB re. 1V/uPa) Sens(V/Pa) Sens(V^2cm^2/W) Cap(pF)
#
DATA_FIELDS	5
DATA_FIELD	FREQ_MHz
DATA_FIELD	SENS_DB
DATA_FIELD	SENS_VPERPA
DATA_FIELD	SENS_V2CM2PERW
DATA_FIELD	CAP_PF
# End of file header
HEADER_END	0
 1.000	 -256.81	  1.444E-007	3.128E-004	    209.991
 1.050	 -257.78	  1.291E-007	2.501E-004	    209.841
 1.100	 -258.62	  1.172E-007	2.062E-004	    209.695
 1.150	 -259.38	  1.074E-007	1.730E-004	    209.555
 1.200	 -259.83	  1.020E-007	1.559E-004	    209.422
 1.250	 -259.62	  1.044E-007	1.636E-004	    209.293
 1.300	 -259.42	  1.069E-007	1.715E-004	    209.170
 1.350	 -258.98	  1.125E-007	1.898E-004	    209.052
 1.400	 -258.34	  1.210E-007	2.198E-004	    208.940
 1.450	 -257.67	  1.307E-007	2.562E-004	    208.833
 1.500	 -257.12	  1.393E-007	2.911E-004	    208.731
 1.550	 -256.49	  1.498E-007	3.364E-004	    208.634
 1.600	 -255.90	  1.602E-007	3.851E-004	    208.543
 1.650	 -255.47	  1.684E-007	4.255E-004	    208.456
 1.700	 -255.15	  1.748E-007	4.584E-004	    208.374
 1.750	 -254.88	  1.802E-007	4.872E-004	    208.297
 1.800	 -254.67	  1.847E-007	5.117E-004	    208.225
 1.850	 -254.46	  1.893E-007	5.375E-004	    208.158
 1.900	 -254.22	  1.946E-007	5.680E-004	    208.095
 1.950	 -254.48	  1.889E-007	5.352E-004	    208.039
 2.000	 -255.26	  1.725E-007	4.463E-004	    207.988
 2.050	 -256.13	  1.561E-007	3.655E-004	    207.937
 2.100	 -256.75	  1.455E-007	3.174E-004	    207.890
 2.150	 -256.69	  1.465E-007	3.218E-004	    207.849
 2.200	 -256.63	  1.474E-007	3.259E-004	    207.813
 2.250	 -256.73	  1.458E-007	3.187E-004	    207.782
 2.300	 -256.82	  1.442E-007	3.121E-004	    207.754
 2.350	 -257.05	  1.405E-007	2.960E-004	    207.731
 2.400	 -257.09	  1.398E-007	2.931E-004	    207.712
 2.450	 -256.98	  1.416E-007	3.009E-004	    207.697
 2.500	 -256.60	  1.479E-007	3.280E-004	    207.686
 2.550	 -256.58	  1.482E-007	3.296E-004	    207.679
 2.600	 -256.63	  1.474E-007	3.258E-004	    207.676
 2.650	 -256.52	  1.492E-007	3.339E-004	    207.677
 2.700	 -256.59	  1.482E-007	3.293E-004	    207.681
 2.750	 -256.47	  1.501E-007	3.378E-004	    207.689
 2.800	 -256.51	  1.495E-007	3.352E-004	    207.701
 2.850	 -256.50	  1.496E-007	3.356E-004	    207.717
 2.900	 -256.37	  1.520E-007	3.464E-004	    207.737
 2.950	 -256.30	  1.531E-007	3.514E-004	    207.759
 3.000	 -256.37	  1.518E-007	3.457E-004	    207.786
 3.050	 -256.39	  1.516E-007	3.447E-004	    207.815
 3.100	 -256.52	  1.493E-007	3.342E-004	    207.849
 3.150	 -256.62	  1.475E-007	3.265E-004	    207.885
 3.200	 -256.73	  1.458E-007	3.188E-004	    207.925
 3.250	 -256.83	  1.440E-007	3.112E-004	    207.968
 3.300	 -256.88	  1.432E-007	3.078E-004	    208.014
 3.350	 -256.91	  1.427E-007	3.055E-004	    208.064
 3.400	 -256.94	  1.423E-007	3.037E-004	    208.117
 3.450	 -256.99	  1.415E-007	3.002E-004	    208.172
 3.500	 -257.00	  1.412E-007	2.992E-004	    208.231
 3.550	 -256.92	  1.426E-007	3.049E-004	    208.293
 3.600	 -256.81	  1.444E-007	3.129E-004	    208.358
 3.650	 -256.62	  1.476E-007	3.269E-004	    208.425
 3.700	 -256.44	  1.507E-007	3.406E-004	    208.496
 3.750	 -256.27	  1.537E-007	3.542E-004	    208.569
 3.800	 -256.11	  1.565E-007	3.673E-004	    208.646
 3.850	 -255.93	  1.597E-007	3.827E-004	    208.724
 3.900	 -255.65	  1.649E-007	4.080E-004	    208.806
 3.950	 -255.48	  1.682E-007	4.244E-004	    208.891
 4.000	 -255.29	  1.720E-007	4.438E-004	    208.978
 4.050	 -255.20	  1.737E-007	4.527E-004	    209.068
 4.100	 -255.07	  1.764E-007	4.666E-004	    209.160
 4.150	 -255.12	  1.754E-007	4.612E-004	    209.255
 4.200	 -255.19	  1.740E-007	4.542E-004	    209.352
 4.250	 -255.53	  1.674E-007	4.201E-004	    209.452
 4.300	 -255.68	  1.644E-007	4.056E-004	    209.554
 4.350	 -255.77	  1.628E-007	3.977E-004	    209.659
 4.400	 -255.81	  1.619E-007	3.934E-004	    209.767
 4.450	 -255.92	  1.599E-007	3.836E-004	    209.876
 4.500	 -255.88	  1.607E-007	3.873E-004	    209.988
 4.550	 -255.91	  1.602E-007	3.850E-004	    210.102
 4.600	 -255.87	  1.608E-007	3.879E-004	    210.219
 4.650	 -255.82	  1.618E-007	3.926E-004	    210.337
 4.700	 -255.80	  1.622E-007	3.945E-004	    210.458
 4.750	 -255.77	  1.627E-007	3.973E-004	    210.581
 4.800	 -255.72	  1.636E-007	4.015E-004	    210.707
 4.850	 -255.65	  1.650E-007	4.084E-004	    210.834
 4.900	 -255.60	  1.660E-007	4.134E-004	    210.963
 4.950	 -255.53	  1.673E-007	4.199E-004	    211.095
 5.000	 -255.39	  1.700E-007	4.337E-004	    211.228
 5.050	 -255.32	  1.714E-007	4.407E-004	    211.364
 5.100	 -255.29	  1.720E-007	4.438E-004	    211.502
 5.150	 -255.12	  1.753E-007	4.609E-004	    211.641
 5.200	 -255.02	  1.774E-007	4.718E-004	    211.783
 5.250	 -254.94	  1.790E-007	4.809E-004	    211.926
 5.300	 -254.90	  1.800E-007	4.858E-004	    212.071
 5.350	 -254.97	  1.784E-007	4.776E-004	    212.219
 5.400	 -255.05	  1.768E-007	4.688E-004	    212.368
 5.450	 -255.12	  1.755E-007	4.618E-004	    212.518
 5.500	 -255.13	  1.752E-007	4.604E-004	    212.671
 5.550	 -255.12	  1.754E-007	4.615E-004	    212.826
 5.600	 -255.07	  1.763E-007	4.662E-004	    212.982
 5.650	 -255.09	  1.760E-007	4.644E-004	    213.140
 5.700	 -254.98	  1.783E-007	4.767E-004	    213.300
 5.750	 -254.95	  1.788E-007	4.794E-004	    213.461
 5.800	 -254.92	  1.794E-007	4.826E-004	    213.625
 5.850	 -254.95	  1.790E-007	4.804E-004	    213.789
 5.900	 -254.96	  1.787E-007	4.788E-004	    213.956
 5.950	 -255.01	  1.776E-007	4.730E-004	    214.124
 6.000	 -255.08	  1.762E-007	4.656E-004	    214.294
 6.050	 -255.11	  1.755E-007	4.622E-004	    214.466
 6.100	 -255.00	  1.777E-007	4.739E-004	    214.639
 6.150	 -255.04	  1.771E-007	4.705E-004	    214.814
 6.200	 -254.65	  1.852E-007	5.145E-004	    214.990
 6.250	 -254.57	  1.869E-007	5.241E-004	    215.168
 6.300	 -254.67	  1.848E-007	5.121E-004	    215.348
 6.350	 -254.86	  1.807E-007	4.897E-004	    215.529
 6.400	 -255.08	  1.762E-007	4.654E-004	    215.712
 6.450	 -255.15	  1.747E-007	4.580E-004	    215.896
 6.500	 -254.91	  1.797E-007	4.846E-004	    216.082
 6.550	 -254.66	  1.849E-007	5.128E-004	    216.269
 6.600	 -254.65	  1.851E-007	5.138E-004	    216.458
 6.650	 -254.76	  1.827E-007	5.009E-004	    216.648
 6.700	 -254.97	  1.785E-007	4.781E-004	    216.840
 6.750	 -254.85	  1.809E-007	4.910E-004	    217.034
 6.800	 -254.89	  1.800E-007	4.860E-004	    217.229
 6.850	 -254.92	  1.795E-007	4.832E-004	    217.425
 6.900	 -254.98	  1.783E-007	4.767E-004	    217.623
 6.950	 -254.97	  1.784E-007	4.774E-004	    217.822
 7.000	 -255.09	  1.759E-007	4.642E-004	    218.023
 7.050	 -255.07	  1.764E-007	4.667E-004	    218.226
 7.100	 -255.12	  1.754E-007	4.616E-004	    218.429
 7.150	 -255.15	  1.747E-007	4.578E-004	    218.635
 7.200	 -255.05	  1.767E-007	4.684E-004	    218.842
 7.250	 -255.11	  1.757E-007	4.630E-004	    219.050
 7.300	 -255.11	  1.755E-007	4.620E-004	    219.260
 7.350	 -255.12	  1.755E-007	4.619E-004	    219.471
 7.400	 -255.03	  1.771E-007	4.706E-004	    219.683
 7.450	 -254.91	  1.797E-007	4.845E-004	    219.898
 7.500	 -254.99	  1.780E-007	4.755E-004	    220.113
 7.550	 -255.04	  1.770E-007	4.701E-004	    220.330
 7.600	 -255.13	  1.752E-007	4.602E-004	    220.549
 7.650	 -255.28	  1.722E-007	4.445E-004	    220.769
 7.700	 -255.25	  1.727E-007	4.475E-004	    220.991
 7.750	 -255.26	  1.725E-007	4.464E-004	    221.214
 7.800	 -255.22	  1.733E-007	4.504E-004	    221.439
 7.850	 -255.19	  1.739E-007	4.536E-004	    221.665
 7.900	 -255.20	  1.739E-007	4.534E-004	    221.892
 7.950	 -255.21	  1.736E-007	4.523E-004	    222.122
 8.000	 -255.27	  1.724E-007	4.460E-004	    222.352
 8.050	 -255.36	  1.706E-007	4.365E-004	    222.585
 8.100	 -255.36	  1.706E-007	4.364E-004	    222.818
 8.150	 -255.31	  1.717E-007	4.421E-004	    223.054
 8.200	 -255.26	  1.726E-007	4.469E-004	    223.291
 8.250	 -255.22	  1.734E-007	4.510E-004	    223.529
 8.300	 -255.15	  1.748E-007	4.582E-004	    223.770
 8.350	 -255.11	  1.755E-007	4.620E-004	    224.011
 8.400	 -255.14	  1.750E-007	4.594E-004	    224.255
 8.450	 -255.27	  1.725E-007	4.462E-004	    224.500
 8.500	 -255.33	  1.712E-007	4.395E-004	    224.747
 8.550	 -255.20	  1.738E-007	4.529E-004	    224.995
 8.600	 -255.11	  1.756E-007	4.627E-004	    225.245
 8.650	 -255.09	  1.760E-007	4.645E-004	    225.497
 8.700	 -255.16	  1.745E-007	4.568E-004	    225.750
 8.750	 -255.19	  1.741E-007	4.544E-004	    226.005
 8.800	 -255.18	  1.741E-007	4.549E-004	    226.262
 8.850	 -255.12	  1.753E-007	4.610E-004	    226.521
 8.900	 -254.96	  1.786E-007	4.785E-004	    226.781
 8.950	 -254.93	  1.792E-007	4.819E-004	    227.044
 9.000	 -254.99	  1.781E-007	4.760E-004	    227.308
 9.050	 -255.09	  1.759E-007	4.642E-004	    227.574
 9.100	 -255.11	  1.757E-007	4.629E-004	    227.841
 9.150	 -255.00	  1.778E-007	4.744E-004	    228.111
 9.200	 -254.86	  1.806E-007	4.894E-004	    228.383
 9.250	 -254.82	  1.816E-007	4.949E-004	    228.656
 9.300	 -254.81	  1.817E-007	4.953E-004	    228.931
 9.350	 -254.94	  1.790E-007	4.804E-004	    229.209
 9.400	 -254.96	  1.787E-007	4.789E-004	    229.488
 9.450	 -254.88	  1.803E-007	4.878E-004	    229.770
 9.500	 -254.92	  1.794E-007	4.829E-004	    230.053
 9.550	 -254.92	  1.795E-007	4.833E-004	    230.339
 9.600	 -254.91	  1.797E-007	4.841E-004	    230.626
 9.650	 -254.82	  1.815E-007	4.942E-004	    230.916
 9.700	 -254.85	  1.809E-007	4.906E-004	    231.208
 9.750	 -255.07	  1.764E-007	4.665E-004	    231.502
 9.800	 -255.00	  1.779E-007	4.746E-004	    231.798
 9.850	 -254.96	  1.786E-007	4.783E-004	    232.096
 9.900	 -255.07	  1.765E-007	4.671E-004	    232.397
 9.950	 -255.05	  1.768E-007	4.688E-004	    232.700
10.000	 -254.92	  1.794E-007	4.830E-004	    233.006
10.050	 -254.87	  1.806E-007	4.892E-004	    233.313
10.100	 -254.86	  1.806E-007	4.895E-004	    233.623
10.150	 -254.99	  1.779E-007	4.749E-004	    233.936
10.200	 -255.09	  1.759E-007	4.641E-004	    234.251
10.250	 -255.08	  1.762E-007	4.656E-004	    234.568
10.300	 -255.14	  1.750E-007	4.594E-004	    234.888
10.350	 -255.40	  1.698E-007	4.325E-004	    235.211
10.400	 -255.08	  1.763E-007	4.660E-004	    235.536
10.450	 -255.00	  1.779E-007	4.747E-004	    235.863
10.500	 -255.22	  1.733E-007	4.507E-004	    236.194
10.550	 -255.28	  1.722E-007	4.446E-004	    236.527
10.600	 -255.19	  1.741E-007	4.544E-004	    236.862
10.650	 -255.36	  1.706E-007	4.367E-004	    237.201
10.700	 -255.42	  1.695E-007	4.309E-004	    237.542
10.750	 -255.27	  1.724E-007	4.459E-004	    237.887
10.800	 -255.35	  1.708E-007	4.376E-004	    238.234
10.850	 -255.43	  1.693E-007	4.300E-004	    238.584
10.900	 -255.57	  1.665E-007	4.161E-004	    238.937
10.950	 -255.56	  1.667E-007	4.168E-004	    239.293
11.000	 -255.54	  1.671E-007	4.186E-004	    239.652
11.050	 -255.57	  1.665E-007	4.156E-004	    240.014
11.100	 -255.61	  1.657E-007	4.120E-004	    240.379
11.150	 -255.66	  1.647E-007	4.071E-004	    240.747
11.200	 -255.76	  1.629E-007	3.982E-004	    241.119
11.250	 -255.70	  1.640E-007	4.036E-004	    241.494
11.300	 -255.77	  1.628E-007	3.974E-004	    241.872
11.350	 -255.74	  1.634E-007	4.003E-004	    242.254
11.400	 -255.79	  1.624E-007	3.957E-004	    242.639
11.450	 -255.98	  1.588E-007	3.783E-004	    243.027
11.500	 -255.88	  1.607E-007	3.873E-004	    243.419
11.550	 -255.79	  1.624E-007	3.958E-004	    243.815
11.600	 -256.02	  1.582E-007	3.752E-004	    244.214
11.650	 -256.10	  1.567E-007	3.681E-004	    244.616
11.700	 -256.24	  1.541E-007	3.562E-004	    245.023
11.750	 -256.36	  1.520E-007	3.464E-004	    245.433
11.800	 -256.32	  1.527E-007	3.499E-004	    245.847
11.850	 -256.15	  1.558E-007	3.642E-004	    246.265
11.900	 -256.30	  1.532E-007	3.519E-004	    246.687
11.950	 -256.39	  1.516E-007	3.448E-004	    247.112
12.000	 -256.54	  1.489E-007	3.328E-004	    247.542
12.050	 -256.56	  1.487E-007	3.316E-004	    247.976
12.100	 -256.75	  1.453E-007	3.167E-004	    248.413
12.150	 -256.71	  1.461E-007	3.202E-004	    248.855
12.200	 -256.83	  1.440E-007	3.110E-004	    249.301
12.250	 -256.95	  1.420E-007	3.025E-004	    249.752
12.300	 -256.86	  1.435E-007	3.088E-004	    250.207
12.350	 -256.77	  1.450E-007	3.153E-004	    250.666
12.400	 -256.80	  1.445E-007	3.132E-004	    251.129
12.450	 -256.90	  1.429E-007	3.064E-004	    251.597
12.500	 -256.85	  1.437E-007	3.097E-004	    252.070
12.550	 -256.95	  1.421E-007	3.030E-004	    252.547
12.600	 -257.19	  1.382E-007	2.863E-004	    253.029
12.650	 -257.25	  1.373E-007	2.828E-004	    253.516
12.700	 -257.24	  1.374E-007	2.833E-004	    254.007
12.750	 -257.36	  1.355E-007	2.753E-004	    254.504
12.800	 -257.46	  1.339E-007	2.690E-004	    255.005
12.850	 -257.58	  1.321E-007	2.618E-004	    255.511
12.900	 -257.58	  1.321E-007	2.617E-004	    256.023
12.950	 -257.66	  1.310E-007	2.573E-004	    256.539
13.000	 -257.89	  1.275E-007	2.437E-004	    257.061
13.050	 -257.79	  1.289E-007	2.493E-004	    257.588
13.100	 -257.62	  1.316E-007	2.596E-004	    258.120
13.150	 -257.64	  1.313E-007	2.584E-004	    258.657
13.200	 -257.72	  1.300E-007	2.535E-004	    259.200
13.250	 -257.85	  1.281E-007	2.462E-004	    259.749
13.300	 -258.01	  1.257E-007	2.371E-004	    260.303
13.350	 -257.95	  1.266E-007	2.404E-004	    260.863
13.400	 -258.08	  1.247E-007	2.334E-004	    261.428
13.450	 -258.45	  1.196E-007	2.145E-004	    261.999
13.500	 -258.30	  1.216E-007	2.217E-004	    262.577
13.550	 -258.20	  1.230E-007	2.268E-004	    263.160
13.600	 -258.13	  1.241E-007	2.309E-004	    263.749
13.650	 -258.19	  1.231E-007	2.273E-004	    264.344
13.700	 -258.43	  1.198E-007	2.151E-004	    264.945
13.750	 -258.45	  1.195E-007	2.142E-004	    265.552
13.800	 -258.55	  1.182E-007	2.096E-004	    266.166
13.850	 -258.64	  1.170E-007	2.052E-004	    266.786
13.900	 -258.49	  1.190E-007	2.123E-004	    267.412
13.950	 -258.53	  1.185E-007	2.106E-004	    268.045
14.000	 -258.61	  1.173E-007	2.064E-004	    268.685
14.050	 -258.69	  1.163E-007	2.028E-004	    269.331
14.100	 -258.79	  1.149E-007	1.981E-004	    269.983
14.150	 -258.82	  1.146E-007	1.968E-004	    270.643
14.200	 -258.90	  1.135E-007	1.934E-004	    271.310
14.250	 -258.99	  1.123E-007	1.891E-004	    271.983
14.300	 -259.07	  1.113E-007	1.858E-004	    272.663
14.350	 -259.08	  1.112E-007	1.855E-004	    273.351
14.400	 -259.18	  1.098E-007	1.810E-004	    274.045
14.450	 -259.25	  1.091E-007	1.784E-004	    274.748
14.500	 -259.37	  1.075E-007	1.732E-004	    275.457
14.550	 -259.40	  1.071E-007	1.722E-004	    276.173
14.600	 -259.26	  1.089E-007	1.780E-004	    276.898
14.650	 -259.25	  1.090E-007	1.783E-004	    277.629
14.700	 -259.49	  1.061E-007	1.689E-004	    278.369
14.750	 -259.63	  1.043E-007	1.632E-004	    279.116
14.800	 -259.54	  1.054E-007	1.667E-004	    279.872
14.850	 -259.54	  1.055E-007	1.669E-004	    280.636
14.900	 -259.72	  1.032E-007	1.599E-004	    281.407
14.950	 -259.77	  1.027E-007	1.582E-004	    282.187
15.000	 -259.75	  1.029E-007	1.589E-004	    282.975
15.050	 -259.76	  1.028E-007	1.585E-004	    283.771
15.100	 -259.70	  1.035E-007	1.606E-004	    284.575
15.150	 -259.86	  1.016E-007	1.547E-004	    285.388
15.200	 -260.06	  9.929E-008	1.479E-004	    286.209
15.250	 -260.12	  9.860E-008	1.458E-004	    287.039
15.300	 -260.33	  9.625E-008	1.390E-004	    287.877
15.350	 -260.31	  9.654E-008	1.398E-004	    288.725
15.400	 -260.27	  9.698E-008	1.411E-004	    289.581
15.450	 -260.36	  9.597E-008	1.382E-004	    290.446
15.500	 -260.30	  9.657E-008	1.399E-004	    291.320
15.550	 -260.42	  9.524E-008	1.361E-004	    292.203
15.600	 -260.56	  9.377E-008	1.319E-004	    293.096
15.650	 -260.45	  9.492E-008	1.352E-004	    293.999
15.700	 -260.45	  9.497E-008	1.353E-004	    294.911
15.750	 -260.44	  9.509E-008	1.356E-004	    295.833
15.800	 -260.48	  9.466E-008	1.344E-004	    296.764
15.850	 -260.43	  9.518E-008	1.359E-004	    297.705
15.900	 -260.49	  9.449E-008	1.339E-004	    298.656
15.950	 -260.72	  9.200E-008	1.270E-004	    299.616
16.000	 -260.80	  9.121E-008	1.248E-004	    300.587
16.050	 -260.69	  9.235E-008	1.279E-004	    301.568
16.100	 -260.80	  9.118E-008	1.247E-004	    302.558
16.150	 -261.00	  8.909E-008	1.191E-004	    303.559
16.200	 -260.98	  8.936E-008	1.198E-004	    304.571
16.250	 -260.85	  9.071E-008	1.234E-004	    305.593
16.300	 -260.81	  9.105E-008	1.244E-004	    306.625
16.350	 -260.69	  9.234E-008	1.279E-004	    307.669
16.400	 -260.83	  9.091E-008	1.240E-004	    308.723
16.450	 -260.93	  8.985E-008	1.211E-004	    309.789
16.500	 -261.09	  8.818E-008	1.166E-004	    310.866
16.550	 -261.13	  8.784E-008	1.157E-004	    311.954
16.600	 -261.10	  8.815E-008	1.166E-004	    313.053
16.650	 -261.26	  8.653E-008	1.123E-004	    314.164
16.700	 -261.73	  8.194E-008	1.007E-004	    315.286
16.750	 -261.75	  8.173E-008	1.002E-004	    316.419
16.800	 -261.45	  8.464E-008	1.074E-004	    317.565
16.850	 -261.33	  8.577E-008	1.104E-004	    318.721
16.900	 -261.37	  8.542E-008	1.095E-004	    319.890
16.950	 -261.37	  8.540E-008	1.094E-004	    321.071
17.000	 -261.26	  8.649E-008	1.122E-004	    322.264
17.050	 -261.36	  8.555E-008	1.098E-004	    323.469
17.100	 -261.48	  8.432E-008	1.067E-004	    324.686
17.150	 -261.62	  8.300E-008	1.033E-004	    325.916
17.200	 -261.61	  8.313E-008	1.036E-004	    327.158
17.250	 -261.55	  8.362E-008	1.049E-004	    328.413
17.300	 -261.27	  8.637E-008	1.119E-004	    329.680
17.350	 -261.50	  8.418E-008	1.063E-004	    330.961
17.400	 -261.73	  8.198E-008	1.008E-004	    332.254
17.450	 -261.86	  8.072E-008	9.773E-005	    333.561
17.500	 -261.66	  8.260E-008	1.023E-004	    334.881
17.550	 -261.79	  8.137E-008	9.932E-005	    336.215
17.600	 -261.80	  8.127E-008	9.907E-005	    337.563
17.650	 -261.74	  8.184E-008	1.005E-004	    338.923
17.700	 -261.80	  8.129E-008	9.913E-005	    340.298
17.750	 -261.78	  8.143E-008	9.946E-005	    341.686
17.800	 -261.74	  8.185E-008	1.005E-004	    343.089
17.850	 -261.84	  8.092E-008	9.822E-005	    344.505
17.900	 -261.75	  8.173E-008	1.002E-004	    345.935
17.950	 -261.99	  7.950E-008	9.481E-005	    347.380
18.000	 -262.14	  7.818E-008	9.167E-005	    348.839
18.050	 -261.94	  7.995E-008	9.587E-005	    350.313
18.100	 -261.88	  8.053E-008	9.727E-005	    351.801
18.150	 -261.83	  8.096E-008	9.832E-005	    353.304
18.200	 -261.84	  8.093E-008	9.824E-005	    354.821
18.250	 -261.84	  8.094E-008	9.827E-005	    356.355
18.300	 -261.77	  8.158E-008	9.982E-005	    357.903
18.350	 -261.78	  8.143E-008	9.946E-005	    359.466
18.400	 -261.80	  8.128E-008	9.909E-005	    361.044
18.450	 -261.80	  8.131E-008	9.917E-005	    362.639
18.500	 -261.90	  8.037E-008	9.688E-005	    364.249
18.550	 -262.06	  7.890E-008	9.339E-005	    365.874
18.600	 -262.20	  7.765E-008	9.044E-005	    367.515
18.650	 -262.09	  7.863E-008	9.273E-005	    369.173
18.700	 -261.93	  8.010E-008	9.625E-005	    370.846
18.750	 -261.95	  7.993E-008	9.584E-005	    372.536
18.800	 -261.98	  7.965E-008	9.516E-005	    374.242
18.850	 -262.05	  7.898E-008	9.357E-005	    375.965
18.900	 -262.21	  7.750E-008	9.009E-005	    377.704
18.950	 -262.34	  7.638E-008	8.752E-005	    379.461
19.000	 -262.30	  7.678E-008	8.842E-005	    381.234
19.050	 -262.08	  7.867E-008	9.284E-005	    383.023
19.100	 -261.98	  7.960E-008	9.504E-005	    384.831
19.150	 -262.13	  7.826E-008	9.186E-005	    386.655
19.200	 -262.23	  7.738E-008	8.982E-005	    388.498
19.250	 -261.97	  7.970E-008	9.529E-005	    390.357
19.300	 -261.91	  8.027E-008	9.666E-005	    392.234
19.350	 -262.21	  7.751E-008	9.011E-005	    394.130
19.400	 -262.10	  7.852E-008	9.249E-005	    396.044
19.450	 -261.95	  7.990E-008	9.576E-005	    397.977
19.500	 -261.96	  7.977E-008	9.546E-005	    399.927
19.550	 -262.06	  7.890E-008	9.339E-005	    401.895
19.600	 -262.32	  7.654E-008	8.788E-005	    403.882
19.650	 -262.35	  7.630E-008	8.733E-005	    405.888
19.700	 -262.01	  7.934E-008	9.443E-005	    407.914
19.750	 -261.94	  8.001E-008	9.603E-005	    409.957
19.800	 -261.98	  7.963E-008	9.511E-005	    412.020
19.850	 -262.22	  7.746E-008	9.001E-005	    414.101
19.900	 -262.28	  7.691E-008	8.872E-005	    416.203
19.950	 -262.31	  7.663E-008	8.807E-005	    418.323
20.000	 -262.17	  7.788E-008	9.099E-005	    420.454
